SpectraSuite Data File
++++++++++++++++++++++++++++++++++++
Date: Tue Nov 07 13:38:41 GMT 2023
User: 2663452m
Dark Spectrum Present: No
Reference Spectrum Present: No
Number of Sampled Component Spectra: 1
Spectrometers: USB2G51559
Integration Time (usec): 10000 (USB2G51559)
Spectra Averaged: 1 (USB2G51559)
Boxcar Smoothing: 0 (USB2G51559)
Correct for Electrical Dark: No (USB2G51559)
Strobe/Lamp Enabled: No (USB2G51559)
Correct for Detector Non-linearity: No (USB2G51559)
Correct for Stray Light: No (USB2G51559)
Number of Pixels in Processed Spectrum: 651
>>>>>Begin Processed Spectral Data<<<<<
350.00	102.05
351.00	100.71
352.00	99.96
353.00	98.84
354.00	101.14
355.00	100.00
356.00	100.87
357.00	102.89
358.00	104.02
359.00	102.01
360.00	103.82
361.00	102.93
362.00	105.79
363.00	103.68
364.00	103.02
365.00	101.47
366.00	103.31
367.00	102.99
368.00	101.19
369.00	102.94
370.00	105.02
371.00	103.31
372.00	102.32
373.00	102.01
374.00	102.44
375.00	102.98
376.00	101.00
377.00	103.39
378.00	102.85
379.00	102.06
380.00	103.66
381.00	102.98
382.00	104.06
383.00	102.99
384.00	103.37
385.00	99.99
386.00	100.18
387.00	101.75
388.00	102.07
389.00	102.22
390.00	99.95
391.00	102.34
392.00	101.03
393.00	100.37
394.00	100.81
395.00	99.99
396.00	99.05
397.00	99.91
398.00	99.75
399.00	99.07
400.00	98.95
401.00	102.15
402.00	100.11
403.00	100.88
404.00	94.48
405.00	98.96
406.00	100.77
407.00	102.11
408.00	102.00
409.00	102.20
410.00	100.33
411.00	105.04
412.00	101.04
413.00	102.04
414.00	100.76
415.00	101.02
416.00	100.97
417.00	99.93
418.00	102.03
419.00	103.28
420.00	100.47
421.00	103.06
422.00	101.97
423.00	101.93
424.00	103.89
425.00	101.04
426.00	104.83
427.00	101.70
428.00	101.00
429.00	101.63
430.00	102.64
431.00	98.92
432.00	101.00
433.00	100.61
434.00	101.56
435.00	103.05
436.00	101.94
437.00	100.39
438.00	99.73
439.00	99.98
440.00	101.68
441.00	102.07
442.00	100.00
443.00	103.08
444.00	103.61
445.00	100.67
446.00	100.00
447.00	101.92
448.00	101.05
449.00	102.18
450.00	103.21
451.00	102.99
452.00	100.73
453.00	100.00
454.00	100.82
455.00	99.70
456.00	101.89
457.00	103.00
458.00	100.92
459.00	100.15
460.00	96.09
461.00	101.82
462.00	101.13
463.00	101.67
464.00	100.11
465.00	100.93
466.00	101.39
467.00	102.04
468.00	104.04
469.00	102.88
470.00	104.19
471.00	101.99
472.00	102.99
473.00	102.97
474.00	101.91
475.00	101.87
476.00	103.00
477.00	102.39
478.00	102.56
479.00	100.95
480.00	102.00
481.00	101.82
482.00	103.10
483.00	101.95
484.00	100.00
485.00	99.97
486.00	98.96
487.00	101.00
488.00	101.00
489.00	100.26
490.00	102.85
491.00	99.03
492.00	101.00
493.00	100.68
494.00	101.44
495.00	100.93
496.00	101.96
497.00	101.96
498.00	102.34
499.00	99.98
500.00	100.97
501.00	102.94
502.00	104.14
503.00	100.68
504.00	99.84
505.00	100.01
506.00	101.79
507.00	102.07
508.00	99.98
509.00	99.00
510.00	99.87
511.00	99.94
512.00	101.55
513.00	102.08
514.00	102.08
515.00	100.36
516.00	100.31
517.00	103.20
518.00	103.04
519.00	103.36
520.00	100.55
521.00	101.48
522.00	102.06
523.00	101.09
524.00	102.59
525.00	102.92
526.00	99.64
527.00	100.00
528.00	102.04
529.00	101.92
530.00	104.11
531.00	100.87
532.00	102.06
533.00	101.14
534.00	101.51
535.00	103.23
536.00	104.00
537.00	102.32
538.00	101.52
539.00	100.65
540.00	102.22
541.00	100.01
542.00	103.83
543.00	101.98
544.00	103.17
545.00	101.13
546.00	102.00
547.00	101.08
548.00	102.58
549.00	98.79
550.00	101.84
551.00	100.93
552.00	100.85
553.00	102.78
554.00	98.57
555.00	101.02
556.00	103.08
557.00	102.02
558.00	101.14
559.00	100.82
560.00	102.99
561.00	103.02
562.00	101.00
563.00	101.98
564.00	102.60
565.00	102.99
566.00	101.91
567.00	102.00
568.00	102.82
569.00	103.37
570.00	100.94
571.00	102.15
572.00	103.95
573.00	100.99
574.00	100.80
575.00	102.02
576.00	103.85
577.00	102.53
578.00	103.84
579.00	101.92
580.00	100.80
581.00	102.71
582.00	105.82
583.00	102.61
584.00	103.93
585.00	100.99
586.00	100.08
587.00	102.06
588.00	102.00
589.00	101.95
590.00	102.96
591.00	103.12
592.00	100.79
593.00	100.98
594.00	99.53
595.00	98.31
596.00	100.28
597.00	103.00
598.00	101.93
599.00	103.10
600.00	101.07
601.00	100.12
602.00	99.91
603.00	102.96
604.00	102.00
605.00	101.98
606.00	100.30
607.00	102.72
608.00	104.35
609.00	100.95
610.00	100.06
611.00	98.96
612.00	102.57
613.00	102.95
614.00	103.58
615.00	103.30
616.00	101.87
617.00	100.97
618.00	102.03
619.00	102.05
620.00	100.72
621.00	102.21
622.00	100.61
623.00	101.18
624.00	101.22
625.00	102.96
626.00	100.12
627.00	100.68
628.00	103.04
629.00	101.36
630.00	102.52
631.00	103.35
632.00	101.80
633.00	101.98
634.00	100.06
635.00	101.00
636.00	101.72
637.00	101.24
638.00	99.92
639.00	101.12
640.00	100.78
641.00	101.08
642.00	102.04
643.00	101.00
644.00	102.03
645.00	102.02
646.00	103.19
647.00	102.04
648.00	103.88
649.00	103.66
650.00	105.38
651.00	103.88
652.00	103.00
653.00	102.96
654.00	102.81
655.00	102.39
656.00	102.20
657.00	101.63
658.00	99.95
659.00	101.40
660.00	100.93
661.00	101.95
662.00	101.02
663.00	104.02
664.00	101.94
665.00	104.10
666.00	100.54
667.00	99.68
668.00	102.56
669.00	104.61
670.00	103.14
671.00	101.61
672.00	100.94
673.00	102.02
674.00	100.95
675.00	101.01
676.00	100.91
677.00	103.05
678.00	101.94
679.00	104.19
680.00	99.83
681.00	100.54
682.00	99.23
683.00	98.91
684.00	101.73
685.00	103.99
686.00	103.97
687.00	101.80
688.00	105.25
689.00	103.97
690.00	104.00
691.00	104.06
692.00	101.88
693.00	102.18
694.00	100.18
695.00	102.56
696.00	103.67
697.00	100.28
698.00	101.80
699.00	102.04
700.00	102.19
701.00	102.94
702.00	102.53
703.00	100.52
704.00	100.30
705.00	101.05
706.00	103.03
707.00	101.02
708.00	100.95
709.00	101.00
710.00	102.91
711.00	102.01
712.00	99.98
713.00	100.01
714.00	101.00
715.00	100.95
716.00	100.94
717.00	101.89
718.00	104.01
719.00	102.01
720.00	103.05
721.00	100.04
722.00	101.07
723.00	100.04
724.00	101.03
725.00	99.19
726.00	100.18
727.00	100.11
728.00	100.31
729.00	98.82
730.00	100.54
731.00	101.61
732.00	102.01
733.00	102.03
734.00	103.12
735.00	100.51
736.00	99.32
737.00	101.75
738.00	96.61
739.00	100.73
740.00	100.60
741.00	100.97
742.00	100.60
743.00	101.04
744.00	101.35
745.00	99.82
746.00	101.01
747.00	102.18
748.00	100.17
749.00	100.90
750.00	103.17
751.00	103.07
752.00	102.99
753.00	104.53
754.00	103.13
755.00	100.98
756.00	100.93
757.00	102.01
758.00	102.08
759.00	102.03
760.00	101.00
761.00	99.00
762.00	99.98
763.00	99.00
764.00	99.12
765.00	101.89
766.00	99.75
767.00	99.92
768.00	99.88
769.00	100.08
770.00	100.38
771.00	103.08
772.00	103.00
773.00	102.89
774.00	102.33
775.00	101.48
776.00	101.36
777.00	102.27
778.00	103.34
779.00	99.21
780.00	103.99
781.00	102.10
782.00	101.04
783.00	101.00
784.00	102.08
785.00	102.92
786.00	101.90
787.00	99.82
788.00	100.82
789.00	99.61
790.00	99.72
791.00	102.44
792.00	100.80
793.00	102.33
794.00	100.73
795.00	101.12
796.00	101.94
797.00	101.01
798.00	98.87
799.00	97.18
800.00	99.15
801.00	102.09
802.00	101.87
803.00	100.55
804.00	101.29
805.00	101.95
806.00	103.78
807.00	102.98
808.00	103.00
809.00	101.98
810.00	102.20
811.00	103.77
812.00	105.27
813.00	102.92
814.00	102.99
815.00	103.83
816.00	102.18
817.00	101.94
818.00	102.01
819.00	101.86
820.00	101.90
821.00	99.24
822.00	101.53
823.00	103.09
824.00	98.88
825.00	103.03
826.00	101.99
827.00	102.98
828.00	101.96
829.00	100.98
830.00	103.05
831.00	101.75
832.00	107.02
833.00	104.11
834.00	101.99
835.00	99.96
836.00	102.79
837.00	101.64
838.00	101.71
839.00	104.29
840.00	101.20
841.00	101.99
842.00	102.76
843.00	103.22
844.00	100.22
845.00	102.89
846.00	104.23
847.00	103.08
848.00	103.06
849.00	102.01
850.00	100.51
851.00	102.20
852.00	107.81
853.00	103.04
854.00	104.04
855.00	102.85
856.00	103.63
857.00	100.93
858.00	101.09
859.00	99.98
860.00	100.83
861.00	101.16
862.00	100.55
863.00	101.25
864.00	100.01
865.00	100.01
866.00	99.73
867.00	99.71
868.00	99.97
869.00	100.97
870.00	100.01
871.00	100.09
872.00	101.47
873.00	99.97
874.00	101.06
875.00	101.99
876.00	101.17
877.00	101.78
878.00	102.76
879.00	101.79
880.00	102.00
881.00	103.11
882.00	102.00
883.00	100.14
884.00	100.99
885.00	99.15
886.00	103.78
887.00	101.99
888.00	100.06
889.00	101.15
890.00	101.73
891.00	100.39
892.00	100.32
893.00	101.00
894.00	102.28
895.00	104.47
896.00	103.13
897.00	101.03
898.00	102.24
899.00	101.92
900.00	100.39
901.00	100.99
902.00	102.90
903.00	101.51
904.00	101.13
905.00	100.00
906.00	100.00
907.00	100.43
908.00	101.82
909.00	102.97
910.00	103.89
911.00	103.72
912.00	103.17
913.00	104.09
914.00	103.72
915.00	102.49
916.00	101.99
917.00	102.65
918.00	101.55
919.00	102.78
920.00	102.89
921.00	101.61
922.00	103.39
923.00	106.01
924.00	101.57
925.00	100.88
926.00	102.86
927.00	101.78
928.00	102.58
929.00	101.94
930.00	101.05
931.00	101.14
932.00	100.88
933.00	99.92
934.00	99.49
935.00	102.09
936.00	102.00
937.00	100.02
938.00	99.89
939.00	102.00
940.00	102.07
941.00	98.99
942.00	101.00
943.00	100.71
944.00	102.90
945.00	102.00
946.00	99.93
947.00	99.90
948.00	102.06
949.00	104.38
950.00	101.66
951.00	100.96
952.00	101.21
953.00	102.31
954.00	100.22
955.00	95.54
956.00	99.00
957.00	101.94
958.00	100.67
959.00	102.01
960.00	101.70
961.00	101.93
962.00	102.93
963.00	102.52
964.00	102.00
965.00	101.83
966.00	100.57
967.00	101.98
968.00	100.99
969.00	101.76
970.00	103.03
971.00	98.53
972.00	101.00
973.00	98.54
974.00	99.24
975.00	101.03
976.00	101.23
977.00	101.98
978.00	102.00
979.00	103.04
980.00	101.08
981.00	100.60
982.00	102.11
983.00	101.59
984.00	103.00
985.00	100.63
986.00	102.83
987.00	100.20
988.00	102.29
989.00	102.09
990.00	102.10
991.00	102.01
992.00	101.80
993.00	104.02
994.00	103.22
995.00	100.29
996.00	101.16
997.00	100.68
998.00	101.84
999.00	101.54
1000.00	103.84
>>>>>End Processed Spectral Data<<<<<
