SpectraSuite Data File
++++++++++++++++++++++++++++++++++++
Date: Tue Nov 07 13:36:57 GMT 2023
User: 2663452m
Dark Spectrum Present: No
Reference Spectrum Present: No
Number of Sampled Component Spectra: 1
Spectrometers: USB2G51559
Integration Time (usec): 10000 (USB2G51559)
Spectra Averaged: 1 (USB2G51559)
Boxcar Smoothing: 0 (USB2G51559)
Correct for Electrical Dark: No (USB2G51559)
Strobe/Lamp Enabled: No (USB2G51559)
Correct for Detector Non-linearity: No (USB2G51559)
Correct for Stray Light: No (USB2G51559)
Number of Pixels in Processed Spectrum: 651
>>>>>Begin Processed Spectral Data<<<<<
350.00	100.92
351.00	101.01
352.00	101.02
353.00	101.41
354.00	101.04
355.00	101.01
356.00	101.58
357.00	101.31
358.00	103.02
359.00	103.35
360.00	103.78
361.00	102.03
362.00	102.12
363.00	101.51
364.00	100.95
365.00	103.68
366.00	102.72
367.00	101.97
368.00	103.86
369.00	102.85
370.00	102.00
371.00	102.20
372.00	101.35
373.00	103.00
374.00	102.67
375.00	104.18
376.00	101.96
377.00	100.98
378.00	100.07
379.00	99.18
380.00	104.92
381.00	102.93
382.00	103.00
383.00	103.09
384.00	102.28
385.00	103.77
386.00	102.21
387.00	101.54
388.00	102.05
389.00	100.99
390.00	102.07
391.00	100.67
392.00	100.00
393.00	100.80
394.00	103.16
395.00	101.99
396.00	101.66
397.00	101.93
398.00	102.95
399.00	101.56
400.00	102.84
401.00	101.68
402.00	99.99
403.00	99.37
404.00	102.40
405.00	102.24
406.00	103.57
407.00	101.86
408.00	103.00
409.00	102.32
410.00	99.89
411.00	99.01
412.00	101.88
413.00	102.11
414.00	101.09
415.00	101.87
416.00	105.06
417.00	102.73
418.00	103.01
419.00	102.24
420.00	101.99
421.00	101.98
422.00	103.92
423.00	102.95
424.00	99.87
425.00	101.97
426.00	104.03
427.00	102.52
428.00	102.02
429.00	101.79
430.00	100.39
431.00	99.97
432.00	102.90
433.00	103.02
434.00	102.07
435.00	104.17
436.00	101.51
437.00	100.32
438.00	103.18
439.00	104.99
440.00	104.77
441.00	102.11
442.00	104.03
443.00	101.08
444.00	102.04
445.00	99.48
446.00	100.00
447.00	101.75
448.00	101.57
449.00	100.86
450.00	100.88
451.00	101.98
452.00	102.26
453.00	103.94
454.00	103.07
455.00	100.96
456.00	101.88
457.00	102.00
458.00	102.67
459.00	103.62
460.00	102.05
461.00	100.05
462.00	101.07
463.00	101.21
464.00	103.96
465.00	103.10
466.00	103.12
467.00	103.51
468.00	101.92
469.00	101.86
470.00	101.91
471.00	102.64
472.00	102.97
473.00	100.95
474.00	99.32
475.00	102.44
476.00	101.00
477.00	101.90
478.00	102.71
479.00	100.93
480.00	101.00
481.00	99.96
482.00	101.56
483.00	101.08
484.00	104.00
485.00	103.77
486.00	102.93
487.00	104.16
488.00	103.00
489.00	102.01
490.00	102.44
491.00	104.85
492.00	104.00
493.00	102.25
494.00	102.65
495.00	103.25
496.00	102.97
497.00	102.98
498.00	101.22
499.00	101.91
500.00	104.05
501.00	102.09
502.00	103.72
503.00	104.02
504.00	103.80
505.00	101.95
506.00	105.56
507.00	104.55
508.00	103.03
509.00	104.00
510.00	102.78
511.00	102.40
512.00	103.79
513.00	102.99
514.00	104.98
515.00	104.67
516.00	105.09
517.00	104.14
518.00	106.99
519.00	103.17
520.00	106.81
521.00	106.00
522.00	105.02
523.00	103.97
524.00	104.08
525.00	101.80
526.00	105.96
527.00	104.99
528.00	103.92
529.00	104.92
530.00	103.25
531.00	105.15
532.00	104.13
533.00	105.89
534.00	105.12
535.00	102.57
536.00	104.97
537.00	105.78
538.00	105.50
539.00	105.05
540.00	101.88
541.00	104.01
542.00	105.11
543.00	103.37
544.00	102.49
545.00	104.27
546.00	106.05
547.00	105.10
548.00	104.16
549.00	106.29
550.00	105.35
551.00	104.04
552.00	104.16
553.00	106.06
554.00	104.98
555.00	108.80
556.00	104.90
557.00	104.79
558.00	105.94
559.00	106.69
560.00	105.16
561.00	106.82
562.00	104.96
563.00	104.04
564.00	105.06
565.00	104.96
566.00	100.14
567.00	104.04
568.00	104.99
569.00	105.58
570.00	107.48
571.00	107.72
572.00	107.00
573.00	107.95
574.00	108.20
575.00	108.52
576.00	109.71
577.00	111.33
578.00	109.93
579.00	112.03
580.00	111.82
581.00	112.90
582.00	119.00
583.00	116.92
584.00	118.09
585.00	122.97
586.00	121.89
587.00	125.80
588.00	128.68
589.00	129.96
590.00	132.86
591.00	138.85
592.00	148.22
593.00	154.60
594.00	159.60
595.00	163.46
596.00	169.35
597.00	182.00
598.00	198.90
599.00	205.53
600.00	212.25
601.00	222.69
602.00	240.07
603.00	250.53
604.00	278.97
605.00	288.86
606.00	326.78
607.00	348.53
608.00	369.79
609.00	388.82
610.00	432.53
611.00	466.94
612.00	492.34
613.00	537.45
614.00	563.27
615.00	618.16
616.00	670.34
617.00	731.09
618.00	769.23
619.00	848.26
620.00	926.70
621.00	999.98
622.00	1116.35
623.00	1232.50
624.00	1385.67
625.00	1524.09
626.00	1715.59
627.00	1947.74
628.00	2199.30
629.00	2432.53
630.00	2698.44
631.00	2921.65
632.00	3122.95
633.00	3350.18
634.00	3568.83
635.00	3741.36
636.00	3843.53
637.00	3768.24
638.00	3609.93
639.00	3255.91
640.00	2840.64
641.00	2353.34
642.00	1906.93
643.00	1572.08
644.00	1299.98
645.00	1090.98
646.00	911.49
647.00	786.08
648.00	681.04
649.00	601.62
650.00	511.56
651.00	457.09
652.00	396.83
653.00	356.10
654.00	311.40
655.00	277.63
656.00	245.53
657.00	221.86
658.00	203.52
659.00	191.26
660.00	176.78
661.00	166.13
662.00	158.75
663.00	154.04
664.00	146.26
665.00	142.54
666.00	138.27
667.00	135.82
668.00	133.29
669.00	131.98
670.00	123.30
671.00	124.80
672.00	117.87
673.00	114.11
674.00	116.99
675.00	113.99
676.00	115.04
677.00	111.00
678.00	114.30
679.00	111.15
680.00	108.22
681.00	110.21
682.00	110.65
683.00	107.89
684.00	106.88
685.00	105.59
686.00	109.26
687.00	107.52
688.00	105.90
689.00	106.06
690.00	107.02
691.00	107.98
692.00	106.10
693.00	107.00
694.00	104.82
695.00	105.02
696.00	106.84
697.00	106.68
698.00	108.62
699.00	107.20
700.00	103.95
701.00	104.46
702.00	105.04
703.00	105.78
704.00	105.55
705.00	103.29
706.00	105.10
707.00	105.13
708.00	107.20
709.00	104.97
710.00	105.01
711.00	106.01
712.00	102.04
713.00	105.01
714.00	102.02
715.00	101.98
716.00	103.04
717.00	101.85
718.00	102.87
719.00	107.16
720.00	105.25
721.00	104.12
722.00	104.99
723.00	104.25
724.00	102.73
725.00	101.73
726.00	102.18
727.00	103.16
728.00	102.54
729.00	104.97
730.00	105.01
731.00	104.35
732.00	100.92
733.00	103.81
734.00	102.25
735.00	102.66
736.00	103.10
737.00	103.24
738.00	105.11
739.00	102.65
740.00	101.60
741.00	103.74
742.00	102.11
743.00	101.94
744.00	102.38
745.00	102.00
746.00	101.91
747.00	101.52
748.00	101.15
749.00	102.66
750.00	103.97
751.00	99.95
752.00	103.11
753.00	102.74
754.00	101.26
755.00	100.77
756.00	103.12
757.00	105.03
758.00	104.03
759.00	103.00
760.00	104.00
761.00	103.00
762.00	102.96
763.00	102.99
764.00	102.93
765.00	102.02
766.00	101.15
767.00	102.14
768.00	105.18
769.00	103.07
770.00	103.79
771.00	103.75
772.00	102.76
773.00	105.25
774.00	104.86
775.00	102.82
776.00	104.65
777.00	102.58
778.00	102.17
779.00	102.05
780.00	99.04
781.00	100.92
782.00	102.96
783.00	102.00
784.00	99.99
785.00	102.01
786.00	101.00
787.00	102.91
788.00	100.72
789.00	100.28
790.00	101.97
791.00	102.57
792.00	103.54
793.00	101.52
794.00	101.92
795.00	100.17
796.00	99.96
797.00	102.99
798.00	103.00
799.00	103.74
800.00	103.29
801.00	103.71
802.00	102.58
803.00	102.49
804.00	104.18
805.00	102.16
806.00	102.00
807.00	102.02
808.00	103.02
809.00	101.01
810.00	101.97
811.00	101.33
812.00	101.31
813.00	102.38
814.00	104.10
815.00	102.30
816.00	102.08
817.00	101.07
818.00	102.02
819.00	103.03
820.00	102.00
821.00	99.73
822.00	102.10
823.00	103.13
824.00	102.66
825.00	100.05
826.00	100.98
827.00	102.00
828.00	101.97
829.00	104.14
830.00	101.41
831.00	101.04
832.00	101.19
833.00	102.07
834.00	100.01
835.00	102.14
836.00	101.99
837.00	104.20
838.00	103.55
839.00	98.74
840.00	102.87
841.00	104.01
842.00	103.88
843.00	103.69
844.00	100.68
845.00	99.97
846.00	98.08
847.00	99.96
848.00	100.08
849.00	100.97
850.00	103.08
851.00	102.64
852.00	102.52
853.00	102.05
854.00	104.05
855.00	104.07
856.00	105.05
857.00	104.74
858.00	104.71
859.00	104.01
860.00	102.02
861.00	104.14
862.00	103.50
863.00	102.13
864.00	102.92
865.00	103.97
866.00	101.85
867.00	102.60
868.00	104.26
869.00	103.84
870.00	103.00
871.00	102.85
872.00	103.49
873.00	104.58
874.00	103.22
875.00	104.01
876.00	103.66
877.00	101.36
878.00	104.83
879.00	104.15
880.00	100.91
881.00	101.34
882.00	100.30
883.00	101.63
884.00	103.01
885.00	102.77
886.00	101.67
887.00	103.29
888.00	103.09
889.00	100.99
890.00	101.12
891.00	101.32
892.00	104.52
893.00	101.99
894.00	103.32
895.00	101.87
896.00	103.21
897.00	104.04
898.00	102.94
899.00	101.46
900.00	100.99
901.00	104.01
902.00	101.62
903.00	104.08
904.00	102.26
905.00	105.00
906.00	105.04
907.00	102.96
908.00	104.05
909.00	102.95
910.00	100.14
911.00	100.72
912.00	101.91
913.00	100.97
914.00	102.82
915.00	101.94
916.00	102.00
917.00	99.67
918.00	102.14
919.00	99.85
920.00	102.72
921.00	101.24
922.00	102.09
923.00	104.00
924.00	102.90
925.00	101.16
926.00	99.98
927.00	100.12
928.00	102.30
929.00	104.12
930.00	104.99
931.00	101.47
932.00	99.21
933.00	100.98
934.00	102.47
935.00	103.01
936.00	103.01
937.00	103.65
938.00	103.06
939.00	102.00
940.00	100.74
941.00	99.31
942.00	99.99
943.00	101.42
944.00	102.39
945.00	102.00
946.00	100.02
947.00	99.99
948.00	101.04
949.00	102.14
950.00	100.32
951.00	102.02
952.00	102.57
953.00	102.86
954.00	101.11
955.00	102.22
956.00	102.07
957.00	101.15
958.00	99.57
959.00	99.99
960.00	98.31
961.00	99.32
962.00	100.05
963.00	102.24
964.00	102.14
965.00	102.81
966.00	101.50
967.00	102.02
968.00	100.41
969.00	100.07
970.00	100.25
971.00	102.11
972.00	102.00
973.00	101.16
974.00	102.04
975.00	100.82
976.00	100.53
977.00	100.98
978.00	102.65
979.00	104.02
980.00	104.24
981.00	101.22
982.00	102.90
983.00	99.47
984.00	99.96
985.00	99.94
986.00	101.28
987.00	102.95
988.00	99.12
989.00	101.04
990.00	100.61
991.00	102.03
992.00	102.64
993.00	101.03
994.00	97.23
995.00	100.79
996.00	100.10
997.00	97.51
998.00	100.89
999.00	100.00
1000.00	100.13
>>>>>End Processed Spectral Data<<<<<
