SpectraSuite Data File
++++++++++++++++++++++++++++++++++++
Date: Tue Nov 07 14:20:16 GMT 2023
User: 2663452m
Dark Spectrum Present: No
Reference Spectrum Present: No
Number of Sampled Component Spectra: 1
Spectrometers: USB2G51559
Integration Time (usec): 10000000 (USB2G51559)
Spectra Averaged: 1 (USB2G51559)
Boxcar Smoothing: 0 (USB2G51559)
Correct for Electrical Dark: No (USB2G51559)
Strobe/Lamp Enabled: No (USB2G51559)
Correct for Detector Non-linearity: No (USB2G51559)
Correct for Stray Light: No (USB2G51559)
Number of Pixels in Processed Spectrum: 651
>>>>>Begin Processed Spectral Data<<<<<
350.00	238.81
351.00	238.97
352.00	147.74
353.00	695.27
354.00	588.89
355.00	169.27
356.00	206.67
357.00	224.15
358.00	185.15
359.00	182.87
360.00	310.63
361.00	165.60
362.00	206.96
363.00	187.88
364.00	182.45
365.00	145.42
366.00	187.60
367.00	274.45
368.00	149.08
369.00	275.03
370.00	373.60
371.00	171.75
372.00	150.52
373.00	202.76
374.00	226.03
375.00	362.34
376.00	127.71
377.00	910.79
378.00	98.88
379.00	155.21
380.00	135.15
381.00	98.44
382.00	212.05
383.00	229.62
384.00	206.39
385.00	135.91
386.00	209.27
387.00	158.86
388.00	115.67
389.00	178.12
390.00	184.14
391.00	297.03
392.00	136.60
393.00	147.68
394.00	150.00
395.00	195.42
396.00	131.42
397.00	521.07
398.00	155.23
399.00	233.46
400.00	144.32
401.00	178.51
402.00	156.60
403.00	159.01
404.00	155.76
405.00	527.79
406.00	215.17
407.00	226.00
408.00	206.07
409.00	177.08
410.00	162.37
411.00	371.20
412.00	187.56
413.00	245.61
414.00	154.01
415.00	268.33
416.00	375.18
417.00	241.32
418.00	185.02
419.00	259.63
420.00	296.57
421.00	213.30
422.00	339.88
423.00	173.58
424.00	188.87
425.00	174.73
426.00	209.10
427.00	252.65
428.00	182.64
429.00	179.80
430.00	188.94
431.00	194.37
432.00	285.43
433.00	373.32
434.00	218.04
435.00	624.24
436.00	445.40
437.00	195.05
438.00	266.99
439.00	255.30
440.00	234.71
441.00	210.43
442.00	221.12
443.00	425.86
444.00	437.67
445.00	448.67
446.00	279.19
447.00	301.28
448.00	263.88
449.00	235.95
450.00	252.77
451.00	760.70
452.00	504.48
453.00	262.38
454.00	335.18
455.00	314.58
456.00	250.57
457.00	245.79
458.00	237.24
459.00	195.66
460.00	190.03
461.00	781.42
462.00	347.04
463.00	300.11
464.00	686.11
465.00	259.46
466.00	286.94
467.00	276.34
468.00	263.74
469.00	275.83
470.00	389.28
471.00	349.39
472.00	303.29
473.00	310.48
474.00	368.52
475.00	441.11
476.00	314.25
477.00	339.74
478.00	388.31
479.00	560.83
480.00	417.07
481.00	677.92
482.00	479.04
483.00	445.10
484.00	466.67
485.00	486.88
486.00	628.91
487.00	659.51
488.00	541.98
489.00	588.61
490.00	490.63
491.00	521.46
492.00	550.71
493.00	480.88
494.00	508.94
495.00	574.09
496.00	515.27
497.00	538.38
498.00	583.18
499.00	601.78
500.00	424.09
501.00	417.82
502.00	502.24
503.00	432.08
504.00	462.08
505.00	466.79
506.00	542.09
507.00	437.37
508.00	453.74
509.00	419.66
510.00	409.23
511.00	466.03
512.00	507.08
513.00	840.13
514.00	500.58
515.00	452.28
516.00	415.85
517.00	406.27
518.00	393.35
519.00	476.58
520.00	422.50
521.00	407.64
522.00	468.91
523.00	460.93
524.00	557.98
525.00	438.16
526.00	448.18
527.00	512.46
528.00	599.76
529.00	759.25
530.00	448.42
531.00	528.17
532.00	452.90
533.00	604.72
534.00	773.32
535.00	567.73
536.00	459.14
537.00	515.79
538.00	638.37
539.00	630.94
540.00	930.78
541.00	1317.72
542.00	1513.72
543.00	1545.22
544.00	1353.18
545.00	1764.79
546.00	2207.97
547.00	1604.51
548.00	988.30
549.00	1040.98
550.00	780.94
551.00	724.46
552.00	595.90
553.00	728.85
554.00	752.68
555.00	478.07
556.00	491.97
557.00	674.65
558.00	693.95
559.00	570.54
560.00	448.66
561.00	416.94
562.00	749.30
563.00	1471.39
564.00	453.15
565.00	412.58
566.00	518.17
567.00	890.42
568.00	451.70
569.00	365.18
570.00	399.44
571.00	354.13
572.00	378.54
573.00	398.80
574.00	349.92
575.00	394.43
576.00	542.62
577.00	1308.28
578.00	526.57
579.00	653.71
580.00	708.40
581.00	114.80
582.00	1477.37
583.00	947.84
584.00	666.60
585.00	575.49
586.00	595.17
587.00	745.45
588.00	554.22
589.00	484.58
590.00	546.88
591.00	627.35
592.00	478.07
593.00	705.11
594.00	508.94
595.00	487.07
596.00	565.09
597.00	422.62
598.00	486.98
599.00	892.92
600.00	828.14
601.00	487.86
602.00	353.18
603.00	369.54
604.00	491.76
605.00	451.15
606.00	546.33
607.00	493.35
608.00	579.01
609.00	703.20
610.00	1391.82
611.00	2468.20
612.00	1813.82
613.00	1217.72
614.00	994.24
615.00	946.74
616.00	556.99
617.00	516.84
618.00	554.06
619.00	586.55
620.00	536.70
621.00	651.90
622.00	524.19
623.00	465.48
624.00	564.18
625.00	562.10
626.00	522.69
627.00	555.21
628.00	549.16
629.00	423.84
630.00	680.12
631.00	650.80
632.00	502.40
633.00	354.28
634.00	394.57
635.00	401.42
636.00	478.90
637.00	320.41
638.00	380.39
639.00	517.66
640.00	369.64
641.00	405.11
642.00	445.32
643.00	363.36
644.00	289.48
645.00	447.23
646.00	373.00
647.00	363.93
648.00	360.07
649.00	356.09
650.00	658.81
651.00	366.33
652.00	415.71
653.00	310.89
654.00	788.23
655.00	364.85
656.00	342.67
657.00	268.27
658.00	307.33
659.00	360.59
660.00	283.83
661.00	580.66
662.00	377.27
663.00	318.09
664.00	803.91
665.00	415.66
666.00	340.98
667.00	289.36
668.00	2447.99
669.00	98.25
670.00	320.96
671.00	291.30
672.00	628.83
673.00	349.83
674.00	402.14
675.00	362.16
676.00	416.43
677.00	457.22
678.00	481.97
679.00	357.66
680.00	364.61
681.00	685.84
682.00	298.93
683.00	371.38
684.00	346.37
685.00	796.40
686.00	293.24
687.00	253.82
688.00	273.94
689.00	362.80
690.00	516.08
691.00	296.10
692.00	552.85
693.00	408.59
694.00	271.61
695.00	333.66
696.00	368.21
697.00	176.51
698.00	299.81
699.00	246.82
700.00	317.00
701.00	412.94
702.00	259.45
703.00	434.89
704.00	340.46
705.00	306.24
706.00	275.99
707.00	387.06
708.00	310.26
709.00	338.26
710.00	270.91
711.00	268.83
712.00	570.43
713.00	285.48
714.00	259.02
715.00	245.45
716.00	586.26
717.00	292.90
718.00	334.28
719.00	215.18
720.00	193.11
721.00	335.52
722.00	385.12
723.00	270.89
724.00	280.88
725.00	238.34
726.00	290.69
727.00	239.30
728.00	661.79
729.00	240.25
730.00	253.25
731.00	248.09
732.00	333.39
733.00	371.41
734.00	369.98
735.00	383.48
736.00	875.63
737.00	764.38
738.00	272.10
739.00	388.50
740.00	286.07
741.00	324.42
742.00	272.82
743.00	346.33
744.00	384.72
745.00	272.79
746.00	252.58
747.00	237.02
748.00	298.10
749.00	292.93
750.00	254.94
751.00	240.30
752.00	205.72
753.00	338.46
754.00	240.93
755.00	321.61
756.00	245.28
757.00	361.04
758.00	306.90
759.00	279.85
760.00	227.22
761.00	2218.89
762.00	188.69
763.00	261.83
764.00	194.62
765.00	183.22
766.00	274.34
767.00	287.46
768.00	231.25
769.00	199.79
770.00	274.33
771.00	231.29
772.00	331.17
773.00	227.04
774.00	293.96
775.00	325.05
776.00	257.26
777.00	319.05
778.00	323.24
779.00	315.10
780.00	275.94
781.00	219.48
782.00	328.12
783.00	637.13
784.00	237.13
785.00	299.56
786.00	370.68
787.00	330.64
788.00	221.84
789.00	301.33
790.00	194.74
791.00	458.30
792.00	258.01
793.00	228.56
794.00	323.67
795.00	251.69
796.00	229.78
797.00	229.26
798.00	275.18
799.00	339.81
800.00	270.38
801.00	377.70
802.00	265.40
803.00	210.41
804.00	240.88
805.00	256.99
806.00	368.84
807.00	289.51
808.00	351.07
809.00	236.78
810.00	334.12
811.00	269.83
812.00	472.55
813.00	360.77
814.00	379.85
815.00	375.82
816.00	424.05
817.00	255.38
818.00	274.79
819.00	309.10
820.00	269.53
821.00	243.60
822.00	205.88
823.00	252.04
824.00	262.55
825.00	259.43
826.00	447.78
827.00	263.49
828.00	334.36
829.00	552.19
830.00	419.91
831.00	323.48
832.00	517.98
833.00	237.49
834.00	295.09
835.00	252.99
836.00	231.25
837.00	345.17
838.00	237.40
839.00	275.22
840.00	289.24
841.00	521.43
842.00	253.21
843.00	272.46
844.00	246.93
845.00	399.02
846.00	300.39
847.00	301.83
848.00	402.24
849.00	261.01
850.00	304.02
851.00	278.23
852.00	297.32
853.00	259.19
854.00	250.71
855.00	251.05
856.00	275.22
857.00	393.58
858.00	223.83
859.00	232.97
860.00	336.83
861.00	268.27
862.00	262.95
863.00	276.83
864.00	795.14
865.00	329.85
866.00	383.30
867.00	252.60
868.00	281.91
869.00	375.39
870.00	339.04
871.00	261.54
872.00	277.71
873.00	296.63
874.00	357.38
875.00	239.12
876.00	607.11
877.00	269.82
878.00	258.79
879.00	348.64
880.00	323.37
881.00	278.72
882.00	360.97
883.00	434.37
884.00	348.64
885.00	292.33
886.00	521.32
887.00	227.94
888.00	265.74
889.00	204.05
890.00	639.77
891.00	304.13
892.00	286.66
893.00	377.87
894.00	300.55
895.00	374.75
896.00	329.37
897.00	252.71
898.00	234.24
899.00	492.77
900.00	243.30
901.00	317.32
902.00	332.20
903.00	303.42
904.00	339.42
905.00	315.84
906.00	396.48
907.00	514.74
908.00	725.03
909.00	325.82
910.00	267.75
911.00	493.11
912.00	303.61
913.00	196.73
914.00	548.81
915.00	273.14
916.00	439.13
917.00	933.75
918.00	326.93
919.00	278.27
920.00	284.70
921.00	323.86
922.00	305.75
923.00	394.28
924.00	348.60
925.00	308.81
926.00	334.79
927.00	325.65
928.00	271.64
929.00	307.01
930.00	287.50
931.00	330.97
932.00	270.32
933.00	267.55
934.00	262.61
935.00	527.69
936.00	433.97
937.00	362.34
938.00	310.65
939.00	297.68
940.00	135.15
941.00	281.73
942.00	273.33
943.00	364.45
944.00	256.99
945.00	253.21
946.00	391.93
947.00	257.51
948.00	320.70
949.00	391.66
950.00	430.20
951.00	275.69
952.00	275.29
953.00	310.39
954.00	635.33
955.00	403.96
956.00	288.56
957.00	355.57
958.00	344.09
959.00	248.00
960.00	273.23
961.00	292.61
962.00	249.16
963.00	226.99
964.00	526.00
965.00	397.47
966.00	426.16
967.00	290.30
968.00	290.93
969.00	299.53
970.00	310.53
971.00	267.55
972.00	245.83
973.00	265.05
974.00	315.97
975.00	300.24
976.00	312.73
977.00	322.58
978.00	251.95
979.00	249.27
980.00	169.38
981.00	231.14
982.00	233.80
983.00	306.79
984.00	219.93
985.00	264.66
986.00	229.27
987.00	262.23
988.00	332.87
989.00	173.69
990.00	185.23
991.00	269.14
992.00	225.40
993.00	561.60
994.00	217.73
995.00	224.89
996.00	247.16
997.00	551.99
998.00	264.12
999.00	182.35
1000.00	452.94
>>>>>End Processed Spectral Data<<<<<
